82.275 5.0
167.6 10.0
253.2 15.0
335.84 20.0
412.8 25.0
482.58 30.0
544.86 35.0
600.1 40.0
649.12 45.0
692.78 50.0
731.91 55.0
767.22 60.0
799.29 65.0
828.62 70.0
855.6 75.0
880.55 80.0
903.75 85.0
925.41 90.0
945.71 95.0
964.82 100.0
982.86 105.0
999.95 110.0
1016.2 115.0
1031.6 120.0
1046.4 125.0
1060.5 130.0
1074.0 135.0
1087.0 140.0
1099.4 145.0
1111.5 150.0
1123.0 155.0
1134.2 160.0
1145.1 165.0
1155.6 170.0
1165.7 175.0
1175.6 180.0
1185.1 185.0
1194.5 190.0
1203.5 195.0
1212.3 200.0
1220.9 205.0
1229.3 210.0
1237.5 215.0
1245.5 220.0
1253.3 225.0
1260.9 230.0
1268.4 235.0
1275.7 240.0
1282.9 245.0
1289.9 250.0
1296.7 255.0
1303.5 260.0
1310.1 265.0
1316.6 270.0
1323.0 275.0
1329.2 280.0
1335.4 285.0
1341.4 290.0
1347.4 295.0
1353.2 300.0
1359.0 305.0
1364.6 310.0
1370.2 315.0
1375.7 320.0
1381.1 325.0
1386.5 330.0
1391.7 335.0
1396.9 340.0
1402.0 345.0
1407.0 350.0
1412.0 355.0
1416.9 360.0
1421.7 365.0
1426.5 370.0
1431.2 375.0
1435.9 380.0
1440.5 385.0
1445.0 390.0
1449.5 395.0
1454.0 400.0
1458.3 405.0
1462.7 410.0
1467.0 415.0
1471.2 420.0
1475.4 425.0
1479.5 430.0
1483.6 435.0
1487.7 440.0
1491.7 445.0
1495.7 450.0
1499.6 455.0
1503.5 460.0
1507.3 465.0
1511.2 470.0
1514.9 475.0
1518.7 480.0
1522.4 485.0
1526.1 490.0
1529.7 495.0
1533.3 500.0
1536.9 505.0
1540.4 510.0
1543.9 515.0
1547.4 520.0
1550.8 525.0
1554.2 530.0
1557.6 535.0
1561.0 540.0
1564.3 545.0
1567.6 550.0
1570.9 555.0
1574.1 560.0
1577.4 565.0
1580.6 570.0
1583.7 575.0
1586.9 580.0
1590.0 585.0
1593.1 590.0
1596.2 595.0
1599.2 600.0
1602.3 605.0
1605.3 610.0
1608.2 615.0
1611.2 620.0
1614.1 625.0
1617.1 630.0
1620.0 635.0
1622.8 640.0
1625.7 645.0
1628.5 650.0
1631.4 655.0
1634.2 660.0
1636.9 665.0
1639.7 670.0
1642.5 675.0
1645.2 680.0
1647.9 685.0
1650.6 690.0
1653.3 695.0
1655.9 700.0
1658.6 705.0
1661.2 710.0
1663.8 715.0
1666.4 720.0
1669.0 725.0
1671.5 730.0
1674.1 735.0
1676.6 740.0
1679.1 745.0
1681.6 750.0
1684.1 755.0
1686.6 760.0
1689.0 765.0
1691.5 770.0
1693.9 775.0
1696.3 780.0
1698.7 785.0
1701.1 790.0
1703.5 795.0
1705.8 800.0
1708.2 805.0
1710.5 810.0
1712.8 815.0
1715.1 820.0
1717.4 825.0
1719.7 830.0
1722.0 835.0
1724.3 840.0
1726.5 845.0
1728.8 850.0
1731.0 855.0
1733.2 860.0
1735.4 865.0
1737.6 870.0
1739.8 875.0
1742.0 880.0
1744.1 885.0
1746.3 890.0
1748.4 895.0
1750.5 900.0
1752.7 905.0
1754.8 910.0
1756.9 915.0
1759.0 920.0
1761.0 925.0
1763.1 930.0
1765.2 935.0
1767.2 940.0
1769.3 945.0
1771.3 950.0
1773.3 955.0
1775.3 960.0
1777.3 965.0
1779.3 970.0
1781.3 975.0
1783.3 980.0
1785.3 985.0
1787.2 990.0
1789.2 995.0
1791.1 1000.0

T=300.00K ,format density(kg*m^-3) pressure(MPa)